2019/05/23	14:27
Amplitude: 0.10 V
Freq  (Hz) 	 Gain (dB)  	 Phase (deg)
  0.931            -55.270             85.031
  1.304            -52.291             83.395
  1.676            -50.184             80.811
  2.049            -48.401             80.944
  2.421            -46.960             81.497
  3.166            -44.637             79.630
  3.912            -42.822             79.647
  5.029            -40.617             78.172
  6.333            -38.633             77.687
  8.009            -36.611             76.734
 10.058            -34.627             76.122
 12.666            -32.633             75.349
 15.832            -30.714             74.684
 19.930            -28.741             74.578
 25.146            -26.753             73.953
 31.665            -24.785             73.478
 39.861            -22.830             72.587
 50.105            -20.889             71.696
 63.144            -18.942             70.387
 79.349            -17.025             68.839
100.024            -15.070             65.882
125.915            -13.101             61.219
158.511            -11.053             54.138
199.489             -9.405             54.687
251.271             -7.748             53.691
316.277             -6.133             51.340
398.047             -4.616             47.544
501.238             -3.236             42.312
630.878             -2.054             36.094
794.418             -1.092             28.940
1000.054             -0.339             21.500
1258.962              0.150             13.374
1584.925              0.423              5.069
1995.265              0.489             -3.308
2511.963              0.341            -11.793
3162.213             -0.010            -20.401
3981.031             -0.604            -28.755
5011.819             -1.426            -37.248
6309.524             -2.492            -45.303
7943.250             -3.781            -52.841
9999.983             -5.278            -59.568
12589.246             -6.936            -65.624
15848.875             -8.726            -70.645
19952.655            -10.623            -74.966
25118.887            -12.621            -78.464
31622.685            -14.713            -81.285
39810.687            -16.929            -83.452
50118.752            -19.304            -84.737
63095.801            -21.856            -84.261
79432.875            -24.569            -80.921
100000.016            -28.495            -73.318
125892.460            -29.044            -61.317
158489.309            -29.877            -50.757
199526.176            -30.264            -46.221
