2019/05/28	13:26
Amplitude: 2.00 V
Freq  (Hz) 	 Gain (dB)  	 Phase (deg)
 10.058             -0.004             -0.967
 12.666             -0.005             -1.217
 15.832             -0.007             -1.522
 19.930             -0.008             -1.916
 25.146             -0.011             -2.420
 31.665             -0.014             -3.051
 39.861             -0.018             -3.834
 50.105             -0.023             -4.821
 63.144             -0.030             -6.070
 79.349             -0.039             -7.627
100.024             -0.051             -9.613
125.915             -0.068            -12.113
158.511             -0.090            -15.280
199.489             -0.122            -19.300
251.271             -0.171            -24.476
316.277             -0.252            -31.143
398.047             -0.403            -39.814
501.238             -0.711            -51.124
630.878             -1.340            -65.408
794.418             -2.526            -82.190
1000.054             -4.431            -99.626
1258.962             -7.027            -115.636
1584.925            -10.128            -129.112
1995.265            -13.553            -139.932
2511.963            -17.179            -148.465
3162.213            -20.930            -155.167
3981.031            -24.757            -160.541
5011.819            -28.556            -165.247
6309.524            -32.416            -169.254
7943.250            -36.262            -173.286
9999.983            -40.055            181.930
12589.246            -43.730            175.188
15848.875            -47.055            164.807
19952.655            -49.542            149.524
25118.887            -50.539            131.364
31622.685            -50.000            115.631
39810.687            -48.573            104.853
50118.752            -46.776             98.066
63095.801            -44.854             93.663
79432.875            -42.878             90.413
100000.016            -41.333             87.435
125892.460            -38.862             85.096
158489.309            -36.828             82.294
199526.176            -34.777             79.028
