2019/05/28	13:54
Amplitude: 2.00 V
Freq  (Hz) 	 Gain (dB)  	 Phase (deg)
 10.058            -41.127            171.136
 15.832            -33.244            166.945
 25.146            -25.229            159.782
 39.861            -17.307            147.741
 63.144             -9.745            127.345
100.024             -3.746             95.314
158.511             -0.904             60.844
251.271             -0.180             36.925
398.047             -0.043             22.708
630.878             -0.016             14.140
1000.054             -0.009              8.849
1584.925             -0.006              5.505
2511.963             -0.004              3.363
3981.031             -0.004              1.946
6309.524             -0.003              0.940
9999.983             -0.002              0.135
15848.875             -0.004             -0.665
25118.887             -0.006             -1.717
39810.687             -0.031             -4.046
63095.801             -1.301            -18.758
100000.016             -4.402            -44.669
158489.309             -8.750            -56.793
