2019/05/21	14:15
Amplitude: 0.10 V
Freq  (Hz) 	 Gain (dB)  	 Phase (deg)
100.024             19.918            179.880
158.511             19.886            179.874
251.271             19.883            179.766
398.047             19.888            179.689
630.878             19.885            179.476
1000.054             19.879            179.116
1584.925             19.883            178.649
2511.963             19.879            177.880
3981.031             19.869            176.690
6309.524             19.853            174.730
9999.983             19.807            171.600
15848.875             19.687            166.885
25118.887             19.398            159.339
39810.687             18.713            148.362
63095.801             17.266            133.489
100000.016             14.779            116.514
158489.309             11.472            101.356
