2019/05/21	16:17
Amplitude: 2.00 V
Freq  (Hz) 	 Gain (dB)  	 Phase (deg)
  0.931            -11.436            -91.158
  1.676             -6.351            -91.324
  2.421             -3.170            -91.480
  3.912              0.979            -91.605
  6.333              5.139            -91.952
 10.058              9.131            -92.527
 15.832             13.064            -93.444
 25.146             15.689            -95.065
 39.861             16.508            -113.472
 63.144             16.559            -141.158
100.024             16.581            -157.458
158.511             16.580            -168.788
251.271             16.582            -175.718
398.047             16.578            178.891
630.878             16.575            173.865
1000.054             16.570            168.280
1584.925             16.562            160.932
2511.963             16.527            149.922
3981.031             16.336            133.255
6309.524             15.744            108.451
9999.983             14.310             88.865
15848.875              9.834             89.688
25118.887              6.557             87.958
39810.687              2.763             88.734
63095.801             -1.224             86.993
100000.016             -4.952             84.247
158489.309             -9.021             79.192
