2019/05/21	15:07
Amplitude: 0.10 V
Freq  (Hz) 	 Gain (dB)  	 Phase (deg)
100.024             20.823             -0.068
125.915             20.844             -0.134
158.511             20.868             -0.129
199.489             20.868             -0.133
251.271             20.870             -0.192
316.277             20.867             -0.287
398.047             20.870             -0.316
501.238             20.871             -0.491
630.878             20.869             -0.494
794.418             20.872             -0.631
1000.054             20.870             -0.826
1258.962             20.867             -1.061
1584.925             20.865             -1.310
1995.265             20.866             -1.692
2511.963             20.867             -2.122
3162.213             20.862             -2.699
3981.031             20.853             -3.312
5011.819             20.847             -4.196
6309.524             20.839             -5.226
7943.250             20.816             -6.633
9999.983             20.779             -8.366
12589.246             20.731            -10.436
15848.875             20.651            -13.152
19952.655             20.524            -16.489
