2019/05/21	14:27
Amplitude: 0.10 V
Freq  (Hz) 	 Gain (dB)  	 Phase (deg)
100.024             38.563            179.304
158.511             38.177            178.925
251.271             38.171            178.337
398.047             38.174            177.477
630.878             38.162            175.901
1000.054             38.129            173.495
1584.925             38.053            169.774
2511.963             37.846            164.019
3981.031             37.364            155.529
6309.524             36.357            143.575
9999.983             34.445            129.232
15848.875             31.521            115.637
25118.887             27.948            105.791
39810.687             24.114             99.372
63095.801             20.173             94.974
100000.016             16.191             91.147
158489.309             12.196             88.180
