2019/05/21	16:37
Amplitude: 0.10 V
Freq  (Hz) 	 Gain (dB)  	 Phase (deg)
  0.931             -0.000             -0.313
  1.676             -0.002             -0.079
  2.421              0.002             -0.331
  3.912              0.000              0.006
  6.333             -0.000             -0.074
 10.058              0.000             -0.064
 15.832              0.000             -0.037
 25.146              0.000             -0.038
 39.861             -0.000             -0.011
 63.144              0.001              0.007
100.024              0.000              0.039
158.511              0.001              0.078
251.271              0.000              0.093
398.047             -0.000              0.151
630.878             -0.000              0.265
1000.054             -0.000              0.375
1584.925              0.001              0.640
2511.963              0.000              1.148
3981.031              0.003              1.932
6309.524             -0.315             -4.534
9999.983             -0.431             -4.420
15848.875             -0.792             -5.076
25118.887             -1.311             -6.301
39810.687             -1.527             -4.543
63095.801             -1.685             -3.446
100000.016             -1.880             -0.620
