2019/05/27	15:52
Amplitude: 5.00 V
Freq  (Hz) 	 Gain (dB)  	 Phase (deg)
100.024            -46.017            157.422
125.915            -42.248            155.895
158.511            -38.600            153.339
199.489            -34.855            150.576
251.271            -31.184            147.113
316.277            -27.679            142.707
398.047            -24.280            137.602
501.238            -20.971            131.781
630.878            -17.753            125.088
794.418            -14.624            117.117
1000.054            -11.653            107.373
1258.962             -8.975             95.546
1584.925             -6.771             82.007
1995.265             -5.163             67.976
2511.963             -4.123             54.943
3162.213             -3.504             43.847
3981.031             -3.148             34.849
5011.819             -2.940             27.716
6309.524             -2.813             22.102
7943.250             -2.731             17.677
9999.983             -2.673             14.180
12589.246             -2.633             11.419
15848.875             -2.600              9.221
19952.655             -2.573              7.470
25118.887             -2.550              6.072
31622.685             -2.530              4.954
39810.687             -2.511              4.057
50118.752             -2.494              3.334
63095.801             -2.477              2.753
79432.875             -2.462              2.280
100000.016             -2.448              1.864
125892.460             -2.431              1.574
158489.309             -2.415              1.304
199526.176             -2.398              1.064
