2019/05/27	15:36
Amplitude: 5.00 V
Freq  (Hz) 	 Gain (dB)  	 Phase (deg)
100.024            -10.853            -10.077
125.915            -10.855            -12.710
158.511            -10.857            -16.040
199.489            -10.854            -20.262
251.271            -10.850            -25.673
316.277            -10.848            -32.623
398.047            -10.857            -41.668
501.238            -10.914            -53.676
630.878            -11.126            -69.761
794.418            -11.776            -91.255
1000.054            -13.405            -117.964
1258.962            -16.494            -146.194
1584.925            -20.887            -171.050
1995.265            -26.062            169.196
2511.963            -31.687            153.790
3162.213            -37.744            141.004
3981.031            -44.268            130.082
5011.819            -51.617            119.028
6309.524            -60.591            101.998
7943.250            -70.709             44.340
9999.983            -68.875            -19.449
12589.246            -67.146            -32.570
15848.875            -66.978            -34.684
19952.655            -67.461            -32.465
25118.887            -68.160            -27.822
31622.685            -68.873            -21.336
39810.687            -69.487            -13.548
50118.752            -69.944             -4.523
63095.801            -70.172              5.743
79432.875            -70.105             17.131
100000.016            -69.456             29.892
125892.460            -68.731             42.211
158489.309            -67.295             54.177
199526.176            -65.461             64.390
