2019/05/28	13:05
Amplitude: 2.00 V
Freq  (Hz) 	 Gain (dB)  	 Phase (deg)
 10.058            -10.927             -0.500
 12.666            -10.928             -0.625
 15.832            -10.929             -0.791
 19.930            -10.930             -0.988
 25.146            -10.931             -1.248
 31.665            -10.932             -1.565
 39.861            -10.935             -1.982
 50.105            -10.938             -2.483
 63.144            -10.942             -3.127
 79.349            -10.948             -3.924
100.024            -10.957             -4.944
125.915            -10.971             -6.222
158.511            -10.990             -7.815
199.489            -11.015             -9.815
251.271            -11.054            -12.316
316.277            -11.113            -15.421
398.047            -11.201            -19.254
501.238            -11.332            -23.953
630.878            -11.517            -29.621
794.418            -11.769            -36.378
1000.054            -12.082            -44.261
1258.962            -12.417            -53.401
1584.925            -12.663            -64.184
1995.265            -12.590            -78.094
2511.963            -11.855            -100.713
3162.213            -11.785            -148.495
3981.031            -17.691            159.176
5011.819            -25.409            134.396
6309.524            -32.444            121.616
7943.250            -38.926            113.442
9999.983            -45.016            107.443
12589.246            -50.743            102.424
15848.875            -56.060             97.626
19952.655            -60.825             92.435
25118.887            -64.797             86.754
31622.685            -67.719             81.145
39810.687            -69.460             76.721
50118.752            -70.125             74.713
63095.801            -69.938             74.782
79432.875            -69.101             76.123
100000.016            -68.110             75.146
125892.460            -66.219             79.781
158489.309            -64.460             81.071
199526.176            -62.580             82.061
